# E (eV) pdos(E) 
 -5.971  0.912E-04
 -5.871  0.926E-01
 -5.771  0.168E+01
 -5.671  0.155E+01
 -5.571  0.985E+00
 -5.471  0.793E+00
 -5.371  0.691E+00
 -5.271  0.609E+00
 -5.171  0.527E+00
 -5.071  0.534E+00
 -4.971  0.536E+00
 -4.871  0.391E+00
 -4.771  0.447E+00
 -4.671  0.444E+00
 -4.571  0.400E+00
 -4.471  0.338E+00
 -4.371  0.457E+00
 -4.271  0.288E+00
 -4.171  0.410E+00
 -4.071  0.334E+00
 -3.971  0.325E+00
 -3.871  0.395E+00
 -3.771  0.266E+00
 -3.671  0.440E+00
 -3.571  0.286E+00
 -3.471  0.472E+00
 -3.371  0.498E+00
 -3.271  0.227E+00
 -3.171  0.222E+00
 -3.071  0.140E+00
 -2.971  0.288E+00
 -2.871  0.812E-01
 -2.771  0.345E+00
 -2.671  0.610E-01
 -2.571  0.330E+00
 -2.471  0.101E+00
 -2.371  0.246E+00
 -2.271  0.210E+00
 -2.171  0.183E+00
 -2.071  0.347E+00
 -1.971  0.436E+00
 -1.871  0.326E+00
 -1.771  0.438E+00
 -1.671  0.495E+00
 -1.571  0.146E+01
 -1.471  0.844E+00
 -1.371  0.382E+00
 -1.271  0.456E+00
 -1.171  0.255E+00
 -1.071  0.289E+00
 -0.971  0.512E+00
 -0.871  0.307E+00
 -0.771  0.496E+00
 -0.671  0.386E+00
 -0.571  0.342E+00
 -0.471  0.260E+00
 -0.371  0.322E+00
 -0.271  0.169E+00
 -0.171  0.310E+00
 -0.071  0.245E+00
  0.029  0.164E+00
  0.129  0.331E+00
  0.229  0.982E-01
  0.329  0.354E+00
  0.429  0.217E+00
  0.529  0.974E-01
  0.629  0.296E+00
  0.729  0.265E+00
  0.829  0.177E+00
  0.929  0.864E-01
  1.029  0.352E+00
  1.129  0.253E+00
  1.229  0.480E-01
  1.329  0.252E+00
  1.429  0.255E+00
  1.529  0.138E+00
  1.629  0.293E+00
  1.729  0.107E+00
  1.829  0.143E+00
  1.929  0.879E+00
  2.029  0.521E+00
  2.129  0.411E+00
  2.229  0.595E+00
  2.329  0.524E+00
  2.429  0.298E+00
  2.529  0.659E+00
  2.629  0.217E+00
  2.729  0.386E+00
  2.829  0.618E+00
  2.929  0.431E+00
  3.029  0.184E+00
  3.129  0.556E+00
  3.229  0.451E+00
  3.329  0.583E+00
  3.429  0.256E+01
  3.529  0.199E+01
  3.629  0.127E+01
  3.729  0.144E+01
  3.829  0.233E+01
  3.929  0.127E+01
  4.029  0.107E+01
  4.129  0.990E+00
  4.229  0.911E+00
  4.329  0.904E+00
  4.429  0.791E+00
  4.529  0.803E+00
  4.629  0.748E+00
  4.729  0.847E+00
  4.829  0.837E+00
  4.929  0.671E+00
  5.029  0.652E+00
  5.129  0.244E+01
  5.229  0.188E+01
  5.329  0.127E+01
  5.429  0.165E+01
  5.529  0.963E+00
  5.629  0.146E+01
  5.729  0.132E+01
  5.829  0.965E+00
  5.929  0.145E+01
  6.029  0.145E+01
  6.129  0.148E+01
  6.229  0.212E+01
  6.329  0.305E+01
  6.429  0.432E+00
  6.529  0.126E-02
  6.629  0.323E-02
  6.729  0.382E+00
  6.829  0.124E+01
  6.929  0.142E+01
  7.029  0.998E+00
  7.129  0.854E+00
  7.229  0.630E+00
  7.329  0.918E+00
  7.429  0.132E+01
  7.529  0.672E+00
  7.629  0.604E+00
  7.729  0.680E+00
  7.829  0.868E+00
  7.929  0.122E+01
  8.029  0.104E+01
  8.129  0.942E+00
  8.229  0.852E+00
  8.329  0.724E+00
  8.429  0.796E+00
  8.529  0.806E+00
  8.629  0.815E+00
  8.729  0.863E+00
  8.829  0.217E+01
  8.929  0.321E+01
  9.029  0.129E+01
  9.129  0.110E+01
  9.229  0.777E+00
  9.329  0.908E+00
  9.429  0.994E+00
  9.529  0.137E+01
  9.629  0.226E+01
  9.729  0.226E+01
  9.829  0.253E+01
  9.929  0.198E+01
 10.029  0.764E+00
 10.129  0.118E+01
 10.229  0.876E+00
 10.329  0.662E+00
 10.429  0.102E+01
 10.529  0.256E+00
 10.629  0.662E+00
 10.729  0.704E+00
 10.829  0.798E+00
 10.929  0.689E+00
 11.029  0.552E+00
 11.129  0.636E+00
 11.229  0.621E+00
 11.329  0.343E+00
 11.429  0.163E+00
 11.529  0.546E+00
 11.629  0.397E+00
 11.729  0.236E+00
 11.829  0.467E+00
 11.929  0.259E+00
 12.029  0.350E+00
 12.129  0.537E+00
 12.229  0.236E+00
 12.329  0.215E+00
 12.429  0.512E+00
 12.529  0.431E+00
 12.629  0.119E+00
 12.729  0.563E+00
 12.829  0.280E+00
 12.929  0.464E+00
 13.029  0.601E+00
 13.129  0.250E+00
 13.229  0.268E+00
 13.329  0.697E+00
 13.429  0.294E+00
 13.529  0.244E+00
 13.629  0.626E+00
 13.729  0.382E+00
 13.829  0.521E+00
 13.929  0.597E+00
 14.029  0.511E+00
 14.129  0.375E+00
 14.229  0.389E+00
 14.329  0.291E+00
 14.429  0.207E+00
 14.529  0.340E+00
 14.629  0.396E+00
 14.729  0.139E+00
 14.829  0.372E+00
 14.929  0.626E+00
 15.029  0.133E+00
 15.129  0.317E+00
 15.229  0.532E+00
 15.329  0.349E+00
 15.429  0.349E+00
 15.529  0.320E+00
 15.629  0.374E+00
 15.729  0.412E+00
 15.829  0.413E+00
 15.929  0.294E+00
 16.029  0.270E+00
 16.129  0.620E+00
 16.229  0.356E+00
 16.329  0.391E+00
 16.429  0.629E+00
 16.529  0.810E+00
 16.629  0.308E+00
 16.729  0.794E-01
 16.829  0.551E-01
 16.929  0.126E+00
 17.029  0.181E+00
 17.129  0.782E-01
 17.229  0.622E-01
 17.329  0.900E-01
 17.429  0.229E+00
 17.529  0.150E+00
 17.629  0.700E-01
 17.729  0.187E+00
 17.829  0.408E-01
 17.929  0.197E-01
 18.029  0.228E+00
 18.129  0.810E-01
 18.229  0.237E-01
 18.329  0.930E-01
 18.429  0.149E+00
 18.529  0.646E-01
 18.629  0.596E-01
 18.729  0.122E+00
 18.829  0.333E-01
 18.929  0.113E+00
 19.029  0.118E+00
 19.129  0.355E-01
 19.229  0.651E-01
 19.329  0.117E+00
 19.429  0.521E-01
 19.529  0.706E-01
 19.629  0.779E-01
 19.729  0.706E-01
 19.829  0.115E+00
 19.929  0.306E-01
 20.029  0.113E-01
 20.129  0.503E-01
 20.229  0.882E-01
 20.329  0.444E-01
 20.429  0.196E-01
 20.529  0.544E-01
 20.629  0.612E-01
 20.729  0.132E-01
 20.829  0.695E-01
 20.929  0.310E-01
 21.029  0.746E-01
 21.129  0.485E-01
 21.229  0.157E-01
 21.329  0.104E-02
 21.429  0.762E-04
 21.529  0.832E-07
