# E (eV) pdos(E) 
 -5.971  0.242E-06
 -5.871  0.428E-03
 -5.771  0.192E-01
 -5.671  0.652E-01
 -5.571  0.886E-01
 -5.471  0.101E+00
 -5.371  0.109E+00
 -5.271  0.113E+00
 -5.171  0.109E+00
 -5.071  0.120E+00
 -4.971  0.130E+00
 -4.871  0.101E+00
 -4.771  0.119E+00
 -4.671  0.126E+00
 -4.571  0.116E+00
 -4.471  0.100E+00
 -4.371  0.141E+00
 -4.271  0.882E-01
 -4.171  0.132E+00
 -4.071  0.106E+00
 -3.971  0.107E+00
 -3.871  0.127E+00
 -3.771  0.880E-01
 -3.671  0.142E+00
 -3.571  0.908E-01
 -3.471  0.146E+00
 -3.371  0.140E+00
 -3.271  0.826E-01
 -3.171  0.840E-01
 -3.071  0.538E-01
 -2.971  0.111E+00
 -2.871  0.314E-01
 -2.771  0.135E+00
 -2.671  0.236E-01
 -2.571  0.130E+00
 -2.471  0.402E-01
 -2.371  0.950E-01
 -2.271  0.852E-01
 -2.171  0.686E-01
 -2.071  0.137E+00
 -1.971  0.158E+00
 -1.871  0.122E+00
 -1.771  0.172E+00
 -1.671  0.197E+00
 -1.571  0.630E+00
 -1.471  0.374E+00
 -1.371  0.174E+00
 -1.271  0.208E+00
 -1.171  0.120E+00
 -1.071  0.137E+00
 -0.971  0.244E+00
 -0.871  0.152E+00
 -0.771  0.302E+00
 -0.671  0.240E+00
 -0.571  0.210E+00
 -0.471  0.136E+00
 -0.371  0.183E+00
 -0.271  0.108E+00
 -0.171  0.152E+00
 -0.071  0.150E+00
  0.029  0.100E+00
  0.129  0.164E+00
  0.229  0.614E-01
  0.329  0.212E+00
  0.429  0.108E+00
  0.529  0.522E-01
  0.629  0.180E+00
  0.729  0.148E+00
  0.829  0.974E-01
  0.929  0.466E-01
  1.029  0.208E+00
  1.129  0.151E+00
  1.229  0.254E-01
  1.329  0.135E+00
  1.429  0.161E+00
  1.529  0.908E-01
  1.629  0.162E+00
  1.729  0.632E-01
  1.829  0.116E+00
  1.929  0.692E+00
  2.029  0.482E+00
  2.129  0.394E+00
  2.229  0.452E+00
  2.329  0.448E+00
  2.429  0.262E+00
  2.529  0.518E+00
  2.629  0.180E+00
  2.729  0.358E+00
  2.829  0.444E+00
  2.929  0.378E+00
  3.029  0.167E+00
  3.129  0.440E+00
  3.229  0.378E+00
  3.329  0.532E+00
  3.429  0.246E+01
  3.529  0.193E+01
  3.629  0.125E+01
  3.729  0.133E+01
  3.829  0.224E+01
  3.929  0.125E+01
  4.029  0.998E+00
  4.129  0.926E+00
  4.229  0.852E+00
  4.329  0.822E+00
  4.429  0.746E+00
  4.529  0.760E+00
  4.629  0.686E+00
  4.729  0.784E+00
  4.829  0.778E+00
  4.929  0.624E+00
  5.029  0.630E+00
  5.129  0.236E+01
  5.229  0.183E+01
  5.329  0.125E+01
  5.429  0.157E+01
  5.529  0.950E+00
  5.629  0.140E+01
  5.729  0.128E+01
  5.829  0.948E+00
  5.929  0.141E+01
  6.029  0.143E+01
  6.129  0.146E+01
  6.229  0.210E+01
  6.329  0.304E+01
  6.429  0.432E+00
  6.529  0.126E-02
  6.629  0.196E-02
  6.729  0.232E+00
  6.829  0.750E+00
  6.929  0.856E+00
  7.029  0.612E+00
  7.129  0.532E+00
  7.229  0.402E+00
  7.329  0.602E+00
  7.429  0.876E+00
  7.529  0.450E+00
  7.629  0.412E+00
  7.729  0.470E+00
  7.829  0.500E+00
  7.929  0.578E+00
  8.029  0.594E+00
  8.129  0.598E+00
  8.229  0.570E+00
  8.329  0.514E+00
  8.429  0.572E+00
  8.529  0.612E+00
  8.629  0.642E+00
  8.729  0.746E+00
  8.829  0.204E+01
  8.929  0.306E+01
  9.029  0.125E+01
  9.129  0.105E+01
  9.229  0.762E+00
  9.329  0.862E+00
  9.429  0.890E+00
  9.529  0.116E+01
  9.629  0.206E+01
  9.729  0.214E+01
  9.829  0.202E+01
  9.929  0.104E+01
 10.029  0.274E+00
 10.129  0.640E+00
 10.229  0.524E+00
 10.329  0.302E+00
 10.429  0.634E+00
 10.529  0.113E+00
 10.629  0.374E+00
 10.729  0.428E+00
 10.829  0.416E+00
 10.929  0.546E+00
 11.029  0.456E+00
 11.129  0.406E+00
 11.229  0.488E+00
 11.329  0.332E+00
 11.429  0.148E+00
 11.529  0.514E+00
 11.629  0.288E+00
 11.729  0.220E+00
 11.829  0.452E+00
 11.929  0.242E+00
 12.029  0.260E+00
 12.129  0.492E+00
 12.229  0.226E+00
 12.329  0.192E+00
 12.429  0.476E+00
 12.529  0.340E+00
 12.629  0.113E+00
 12.729  0.526E+00
 12.829  0.193E+00
 12.929  0.294E+00
 13.029  0.484E+00
 13.129  0.214E+00
 13.229  0.175E+00
 13.329  0.564E+00
 13.429  0.254E+00
 13.529  0.170E+00
 13.629  0.522E+00
 13.729  0.318E+00
 13.829  0.432E+00
 13.929  0.512E+00
 14.029  0.388E+00
 14.129  0.284E+00
 14.229  0.320E+00
 14.329  0.254E+00
 14.429  0.141E+00
 14.529  0.276E+00
 14.629  0.352E+00
 14.729  0.105E+00
 14.829  0.294E+00
 14.929  0.524E+00
 15.029  0.105E+00
 15.129  0.272E+00
 15.229  0.424E+00
 15.329  0.262E+00
 15.429  0.296E+00
 15.529  0.308E+00
 15.629  0.282E+00
 15.729  0.318E+00
 15.829  0.394E+00
 15.929  0.258E+00
 16.029  0.212E+00
 16.129  0.542E+00
 16.229  0.332E+00
 16.329  0.342E+00
 16.429  0.598E+00
 16.529  0.762E+00
 16.629  0.260E+00
 16.729  0.402E-01
 16.829  0.376E-01
 16.929  0.868E-01
 17.029  0.116E+00
 17.129  0.514E-01
 17.229  0.422E-01
 17.329  0.562E-01
 17.429  0.171E+00
 17.529  0.125E+00
 17.629  0.404E-01
 17.729  0.131E+00
 17.829  0.330E-01
 17.929  0.172E-01
 18.029  0.185E+00
 18.129  0.600E-01
 18.229  0.220E-01
 18.329  0.798E-01
 18.429  0.119E+00
 18.529  0.520E-01
 18.629  0.478E-01
 18.729  0.990E-01
 18.829  0.300E-01
 18.929  0.854E-01
 19.029  0.100E+00
 19.129  0.340E-01
 19.229  0.592E-01
 19.329  0.104E+00
 19.429  0.424E-01
 19.529  0.700E-01
 19.629  0.750E-01
 19.729  0.644E-01
 19.829  0.960E-01
 19.929  0.296E-01
 20.029  0.113E-01
 20.129  0.484E-01
 20.229  0.714E-01
 20.329  0.356E-01
 20.429  0.166E-01
 20.529  0.488E-01
 20.629  0.546E-01
 20.729  0.122E-01
 20.829  0.644E-01
 20.929  0.292E-01
 21.029  0.720E-01
 21.129  0.474E-01
 21.229  0.155E-01
 21.329  0.104E-02
 21.429  0.762E-04
 21.529  0.832E-07
